[GPU 7][JOB 16] 'python cli.py minimax --n 1024 --lengthscale 0.5 --sigma-f2-true 4.0 --sigma-eps2-true 1.0 --n-epochs 2000000 --print-every 800 --device auto --kernel-mode finite --a 1.e-4 --b 40e-3 --w-init-scale 0.001 --num-features 128 --mu-increase-factor 1.0 --mu-increase-epochs 0 --mu 1.e6 --lr-decay 1.0 --lr-decay-every-epochs 0 --seed 1 --batch-size 1024 --sigma-f2-init 6.0  --sigma-eps2-init 2.0 --penalty-normalization relative     --real-psi-if-full-batch '
[CLI] Using torch default dtype torch.float64.

=== MINIMAX + ORF (TMLR) ===  ψ = (g(θ) + log|A| + μ‖A-F‖/‖A‖)/n
iter	epoch	σ_f²	σ_ε²	real_nlml	real_nlml_true	real_nlml_abs_err	orf_nlml	orf_nlml_true	μ	|A-F|/|A|	|A-F|		|A|		|F|		cosAF	|B|	cosBΔ	pen/pen*	lr_scale	ψ_real	g(θ)/n		‖Φw-y‖²/(nσ_ε²)	‖w‖²/n	((n-d)logσ_ε²)/n	(log|A|)/n	μ‖A-F‖/‖A‖/n	||grad_psi_real||	||grad||	duration_s	wall_time_s
 800	800	 6.1270	 1.9945	   1.5744	        1.4676	          0.1068	   1.5744	        1.4676	1000000.0000	2.104e-02	3.201e+01	1.521e+03	1.553e+03	 1.0000	 0.0000	 0.0000	 0.0000	 1.00000	  21.8593	   1.0854	   0.4569	   0.0244	   0.6041	   0.2253	  20.5486	9.917e+02	1.270e-01	   8.053	   320.546
1600	1600	 6.4282	 1.9919	   1.5744	        1.4676	          0.1068	   1.5744	        1.4676	1000000.0000	7.095e-02	1.079e+02	1.521e+03	1.629e+03	 1.0000	 0.0000	 0.0000	 0.0000	 1.00000	  70.6025	   1.0861	   0.4587	   0.0244	   0.6030	   0.2253	  69.2911	1.041e+03	1.270e-01	   4.284	   594.546
2400	2400	 5.5531	 1.9906	   1.5734	        1.4676	          0.1057	   1.5734	        1.4676	1000000.0000	7.410e-02	1.127e+02	1.521e+03	1.409e+03	 1.0000	 0.0000	 0.0000	 0.0000	 1.00000	  73.6769	   1.0898	   0.4630	   0.0244	   0.6024	   0.2253	  72.3618	8.989e+02	1.271e-01	   5.061	   897.028
3200	3200	 6.1687	 1.9890	   1.5738	        1.4676	          0.1061	   1.5738	        1.4676	1000000.0000	2.792e-02	4.248e+01	1.521e+03	1.564e+03	 1.0000	 0.0000	 0.0000	 0.0000	 1.00000	  28.5785	   1.0842	   0.4581	   0.0244	   0.6017	   0.2253	  27.2690	9.985e+02	1.271e-01	   4.725	  1205.533
4000	4000	 5.6381	 1.9888	   1.5732	        1.4676	          0.1056	   1.5732	        1.4676	1000000.0000	6.002e-02	9.130e+01	1.521e+03	1.430e+03	 1.0000	 0.0000	 0.0000	 0.0000	 1.00000	  59.9255	   1.0880	   0.4619	   0.0244	   0.6016	   0.2253	  58.6122	9.127e+02	1.271e-01	   5.784	  1515.995
4800	4800	 5.7432	 1.9890	   1.5734	        1.4676	          0.1057	   1.5734	        1.4676	1000000.0000	4.259e-02	6.479e+01	1.521e+03	1.456e+03	 1.0000	 0.0000	 0.0000	 0.0000	 1.00000	  42.9014	   1.0866	   0.4605	   0.0244	   0.6017	   0.2253	  41.5895	9.297e+02	1.271e-01	   5.236	  1830.498
5600	5600	 6.2303	 1.9891	   1.5738	        1.4676	          0.1062	   1.5738	        1.4676	1000000.0000	3.813e-02	5.801e+01	1.521e+03	1.579e+03	 1.0000	 0.0000	 0.0000	 0.0000	 1.00000	  38.5500	   1.0844	   0.4582	   0.0244	   0.6017	   0.2253	  37.2403	1.008e+03	1.271e-01	   5.929	  2145.259
6400	6400	 6.5177	 1.9896	   1.5742	        1.4676	          0.1066	   1.5742	        1.4676	1000000.0000	8.578e-02	1.305e+02	1.521e+03	1.652e+03	 1.0000	 0.0000	 0.0000	 0.0000	 1.00000	  85.0783	   1.0865	   0.4601	   0.0244	   0.6019	   0.2253	  83.7666	1.055e+03	1.271e-01	   3.595	  2446.327
7200	7200	 6.0615	 1.9895	   1.5737	        1.4676	          0.1061	   1.5737	        1.4676	1000000.0000	1.017e-02	1.547e+01	1.521e+03	1.537e+03	 1.0000	 0.0000	 0.0000	 0.0000	 1.00000	  11.2377	   1.0844	   0.4581	   0.0244	   0.6019	   0.2253	   9.9280	9.811e+02	1.271e-01	   5.647	  2759.366
8000	8000	 5.4511	 1.9885	   1.5730	        1.4676	          0.1054	   1.5730	        1.4676	1000000.0000	9.100e-02	1.384e+02	1.521e+03	1.383e+03	 1.0000	 0.0000	 0.0000	 0.0000	 1.00000	  90.1843	   1.0914	   0.4655	   0.0244	   0.6014	   0.2253	  88.8677	8.824e+02	1.271e-01	   4.992	  3051.107
8800	8800	 6.1251	 1.9888	   1.5737	        1.4676	          0.1061	   1.5737	        1.4676	1000000.0000	2.070e-02	3.149e+01	1.521e+03	1.553e+03	 1.0000	 0.0000	 0.0000	 0.0000	 1.00000	  21.5270	   1.0842	   0.4582	   0.0244	   0.6016	   0.2253	  20.2175	9.914e+02	1.271e-01	   5.574	  3366.761
9600	9600	 5.6541	 1.9887	   1.5732	        1.4676	          0.1056	   1.5732	        1.4676	1000000.0000	5.736e-02	8.726e+01	1.521e+03	1.434e+03	 1.0000	 0.0000	 0.0000	 0.0000	 1.00000	  57.3313	   1.0877	   0.4617	   0.0244	   0.6015	   0.2253	  56.0184	9.153e+02	1.271e-01	   5.442	  3677.217
10400	10400	 5.8431	 1.9886	   1.5734	        1.4676	          0.1058	   1.5734	        1.4676	1000000.0000	2.604e-02	3.961e+01	1.521e+03	1.482e+03	 1.0000	 0.0000	 0.0000	 0.0000	 1.00000	  26.7388	   1.0854	   0.4595	   0.0244	   0.6015	   0.2253	  25.4281	9.458e+02	1.271e-01	   6.682	  3984.991
11200	11200	 5.9555	 1.9886	   1.5735	        1.4676	          0.1059	   1.5735	        1.4676	1000000.0000	7.401e-03	1.126e+01	1.521e+03	1.510e+03	 1.0000	 0.0000	 0.0000	 0.0000	 1.00000	   8.5376	   1.0846	   0.4587	   0.0244	   0.6015	   0.2253	   7.2277	9.639e+02	1.271e-01	   4.960	  4302.207
12000	12000	 6.5651	 1.9884	   1.5741	        1.4676	          0.1065	   1.5741	        1.4676	1000000.0000	9.364e-02	1.424e+02	1.521e+03	1.664e+03	 1.0000	 0.0000	 0.0000	 0.0000	 1.00000	  92.7551	   1.0868	   0.4610	   0.0244	   0.6014	   0.2253	  91.4430	1.063e+03	1.271e-01	   3.784	  4604.306
12800	12800	 6.4871	 1.9878	   1.5739	        1.4676	          0.1063	   1.5739	        1.4676	1000000.0000	8.071e-02	1.228e+02	1.521e+03	1.644e+03	 1.0000	 0.0000	 0.0000	 0.0000	 1.00000	  80.1277	   1.0858	   0.4602	   0.0244	   0.6011	   0.2253	  78.8166	1.050e+03	1.271e-01	   4.871	  4917.963
13600	13600	 6.2933	 1.9878	   1.5737	        1.4676	          0.1061	   1.5737	        1.4676	1000000.0000	4.858e-02	7.391e+01	1.521e+03	1.595e+03	 1.0000	 0.0000	 0.0000	 0.0000	 1.00000	  48.7543	   1.0844	   0.4588	   0.0244	   0.6012	   0.2253	  47.4446	1.019e+03	1.271e-01	   5.768	  5213.071
14400	14400	 6.1177	 1.9877	   1.5736	        1.4676	          0.1059	   1.5736	        1.4676	1000000.0000	1.947e-02	2.962e+01	1.521e+03	1.551e+03	 1.0000	 0.0000	 0.0000	 0.0000	 1.00000	  20.3228	   1.0840	   0.4584	   0.0244	   0.6011	   0.2253	  19.0136	9.902e+02	1.271e-01	   6.937	  5523.116
15200	15200	 5.9951	 1.9874	   1.5734	        1.4676	          0.1057	   1.5734	        1.4676	1000000.0000	8.533e-04	1.298e+00	1.521e+03	1.520e+03	 1.0000	 0.0000	 0.0000	 0.0000	 1.00000	   2.1427	   1.0842	   0.4588	   0.0244	   0.6010	   0.2253	   0.8333	9.664e+02	1.271e-01	   5.590	  5845.915
16000	16000	 5.9003	 1.9881	   1.5734	        1.4676	          0.1057	   1.5734	        1.4676	1000000.0000	1.656e-02	2.519e+01	1.521e+03	1.496e+03	 1.0000	 0.0000	 0.0000	 0.0000	 1.00000	  17.4815	   1.0848	   0.4591	   0.0244	   0.6013	   0.2252	  16.1714	9.550e+02	1.271e-01	   6.873	  6153.928
16800	16800	 6.0614	 1.9881	   1.5735	        1.4676	          0.1059	   1.5735	        1.4676	1000000.0000	1.014e-02	1.543e+01	1.521e+03	1.537e+03	 1.0000	 0.0000	 0.0000	 0.0000	 1.00000	  11.2115	   1.0841	   0.4584	   0.0244	   0.6013	   0.2252	   9.9021	9.811e+02	1.271e-01	   5.610	  6446.025
17600	17600	 5.6419	 1.9877	   1.5731	        1.4676	          0.1055	   1.5731	        1.4676	1000000.0000	5.939e-02	9.034e+01	1.521e+03	1.431e+03	 1.0000	 0.0000	 0.0000	 0.0000	 1.00000	  59.3068	   1.0876	   0.4621	   0.0244	   0.6011	   0.2252	  57.9940	9.133e+02	1.271e-01	   4.710	  6766.946
18400	18400	 5.7025	 1.9871	   1.5731	        1.4676	          0.1054	   1.5731	        1.4676	1000000.0000	4.934e-02	7.506e+01	1.521e+03	1.446e+03	 1.0000	 0.0000	 0.0000	 0.0000	 1.00000	  49.4971	   1.0866	   0.4613	   0.0244	   0.6008	   0.2252	  48.1853	9.231e+02	1.271e-01	   5.694	  7075.963
19200	19200	 5.6373	 1.9877	   1.5731	        1.4676	          0.1054	   1.5731	        1.4676	1000000.0000	6.015e-02	9.150e+01	1.521e+03	1.430e+03	 1.0000	 0.0000	 0.0000	 0.0000	 1.00000	  60.0494	   1.0877	   0.4621	   0.0244	   0.6011	   0.2252	  58.7365	9.125e+02	1.271e-01	   4.845	  7384.216
20000	20000	 6.1675	 1.9873	   1.5736	        1.4676	          0.1059	   1.5736	        1.4676	1000000.0000	2.773e-02	4.219e+01	1.521e+03	1.563e+03	 1.0000	 0.0000	 0.0000	 0.0000	 1.00000	  28.3902	   1.0839	   0.4586	   0.0244	   0.6009	   0.2252	  27.0810	9.983e+02	1.271e-01	   5.453	  7686.829
20800	20800	 6.2067	 1.9875	   1.5736	        1.4676	          0.1060	   1.5736	        1.4676	1000000.0000	3.423e-02	5.208e+01	1.521e+03	1.573e+03	 1.0000	 0.0000	 0.0000	 0.0000	 1.00000	  34.7397	   1.0840	   0.4586	   0.0244	   0.6010	   0.2252	  33.4305	1.005e+03	1.271e-01	   4.947	  7996.039
21600	21600	 6.3693	 1.9869	   1.5737	        1.4676	          0.1061	   1.5737	        1.4676	1000000.0000	6.117e-02	9.306e+01	1.521e+03	1.614e+03	 1.0000	 0.0000	 0.0000	 0.0000	 1.00000	  61.0509	   1.0847	   0.4595	   0.0244	   0.6008	   0.2252	  59.7410	1.031e+03	1.271e-01	   6.397	  8308.699
22400	22400	 6.0001	 1.9867	   1.5733	        1.4676	          0.1057	   1.5733	        1.4676	1000000.0000	7.870e-05	1.197e-01	1.521e+03	1.521e+03	 1.0000	 0.0000	 0.0000	 0.0000	 1.00000	   1.3861	   1.0840	   0.4589	   0.0244	   0.6007	   0.2252	   0.0769	2.463e+02	1.271e-01	   4.749	  8613.850
23200	23200	 6.4301	 1.9871	   1.5738	        1.4676	          0.1062	   1.5738	        1.4676	1000000.0000	7.125e-02	1.084e+02	1.521e+03	1.630e+03	 1.0000	 0.0000	 0.0000	 0.0000	 1.00000	  70.8919	   1.0852	   0.4599	   0.0244	   0.6008	   0.2252	  69.5815	1.041e+03	1.271e-01	   5.995	  8932.730
24000	24000	 6.2901	 1.9869	   1.5736	        1.4676	          0.1060	   1.5736	        1.4676	1000000.0000	4.804e-02	7.309e+01	1.521e+03	1.594e+03	 1.0000	 0.0000	 0.0000	 0.0000	 1.00000	  48.2278	   1.0842	   0.4590	   0.0245	   0.6008	   0.2252	  46.9184	1.018e+03	1.271e-01	   5.098	  9243.408
24800	24800	 6.0222	 1.9871	   1.5734	        1.4676	          0.1057	   1.5734	        1.4676	1000000.0000	3.640e-03	5.537e+00	1.521e+03	1.527e+03	 1.0000	 0.0000	 0.0000	 0.0000	 1.00000	   4.8637	   1.0840	   0.4587	   0.0245	   0.6008	   0.2252	   3.5544	9.745e+02	1.271e-01	   7.447	  9563.527
25600	25600	 6.3836	 1.9867	   1.5737	        1.4676	          0.1060	   1.5737	        1.4676	1000000.0000	6.355e-02	9.668e+01	1.521e+03	1.618e+03	 1.0000	 0.0000	 0.0000	 0.0000	 1.00000	  63.3708	   1.0847	   0.4596	   0.0245	   0.6007	   0.2252	  62.0609	1.033e+03	1.271e-01	   5.118	  9844.566
26400	26400	 6.2930	 1.9862	   1.5735	        1.4676	          0.1059	   1.5735	        1.4676	1000000.0000	4.853e-02	7.383e+01	1.521e+03	1.595e+03	 1.0000	 0.0000	 0.0000	 0.0000	 1.00000	  48.7053	   1.0841	   0.4592	   0.0245	   0.6004	   0.2252	  47.3960	1.019e+03	1.271e-01	   7.786	 10169.282
27200	27200	 6.4336	 1.9864	   1.5737	        1.4676	          0.1061	   1.5737	        1.4676	1000000.0000	7.183e-02	1.093e+02	1.521e+03	1.631e+03	 1.0000	 0.0000	 0.0000	 0.0000	 1.00000	  71.4568	   1.0851	   0.4601	   0.0245	   0.6005	   0.2252	  70.1466	1.041e+03	1.271e-01	   5.855	 10481.823
28000	28000	 5.9569	 1.9862	   1.5732	        1.4676	          0.1056	   1.5732	        1.4676	1000000.0000	7.174e-03	1.091e+01	1.521e+03	1.510e+03	 1.0000	 0.0000	 0.0000	 0.0000	 1.00000	   8.3150	   1.0841	   0.4592	   0.0245	   0.6005	   0.2252	   7.0057	9.642e+02	1.271e-01	   6.186	 10776.149
28800	28800	 5.9007	 1.9856	   1.5731	        1.4676	          0.1054	   1.5731	        1.4676	1000000.0000	1.649e-02	2.509e+01	1.521e+03	1.496e+03	 1.0000	 0.0000	 0.0000	 0.0000	 1.00000	  17.4141	   1.0843	   0.4597	   0.0245	   0.6002	   0.2252	  16.1046	9.551e+02	1.271e-01	   5.616	 11102.208
29600	29600	 5.4625	 1.9864	   1.5728	        1.4676	          0.1051	   1.5728	        1.4676	1000000.0000	8.912e-02	1.356e+02	1.521e+03	1.386e+03	 1.0000	 0.0000	 0.0000	 0.0000	 1.00000	  88.3465	   1.0906	   0.4656	   0.0245	   0.6005	   0.2252	  87.0308	8.843e+02	1.271e-01	   6.022	 11411.543
30400	30400	 6.5753	 1.9871	   1.5739	        1.4676	          0.1063	   1.5739	        1.4676	1000000.0000	9.532e-02	1.450e+02	1.521e+03	1.666e+03	 1.0000	 0.0000	 0.0000	 0.0000	 1.00000	  94.3992	   1.0868	   0.4615	   0.0245	   0.6008	   0.2252	  93.0873	1.064e+03	1.271e-01	   5.538	 11735.458
31200	31200	 6.0322	 1.9862	   1.5733	        1.4676	          0.1056	   1.5733	        1.4676	1000000.0000	5.293e-03	8.052e+00	1.521e+03	1.529e+03	 1.0000	 0.0000	 0.0000	 0.0000	 1.00000	   6.4777	   1.0838	   0.4589	   0.0245	   0.6004	   0.2252	   5.1687	9.763e+02	1.271e-01	   5.436	 12075.475
32000	32000	 6.3295	 1.9867	   1.5736	        1.4676	          0.1060	   1.5736	        1.4676	1000000.0000	5.457e-02	8.302e+01	1.521e+03	1.604e+03	 1.0000	 0.0000	 0.0000	 0.0000	 1.00000	  54.6023	   1.0844	   0.4593	   0.0245	   0.6007	   0.2252	  53.2927	1.025e+03	1.271e-01	   6.121	 12389.118
32800	32800	 6.5566	 1.9866	   1.5739	        1.4676	          0.1062	   1.5739	        1.4676	1000000.0000	9.222e-02	1.403e+02	1.521e+03	1.662e+03	 1.0000	 0.0000	 0.0000	 0.0000	 1.00000	  91.3716	   1.0865	   0.4614	   0.0245	   0.6006	   0.2252	  90.0599	1.061e+03	1.271e-01	   5.530	 12691.184
33600	33600	 5.8971	 1.9862	   1.5731	        1.4676	          0.1055	   1.5731	        1.4676	1000000.0000	1.710e-02	2.601e+01	1.521e+03	1.495e+03	 1.0000	 0.0000	 0.0000	 0.0000	 1.00000	  18.0041	   1.0845	   0.4596	   0.0245	   0.6004	   0.2252	  16.6944	9.545e+02	1.271e-01	   4.077	 13027.906
34400	34400	 5.7978	 1.9856	   1.5730	        1.4676	          0.1053	   1.5730	        1.4676	1000000.0000	3.355e-02	5.104e+01	1.521e+03	1.470e+03	 1.0000	 0.0000	 0.0000	 0.0000	 1.00000	  34.0761	   1.0852	   0.4605	   0.0245	   0.6002	   0.2252	  32.7657	9.385e+02	1.271e-01	   7.539	 13356.027
35200	35200	 5.7359	 1.9854	   1.5729	        1.4676	          0.1052	   1.5729	        1.4676	1000000.0000	4.382e-02	6.666e+01	1.521e+03	1.455e+03	 1.0000	 0.0000	 0.0000	 0.0000	 1.00000	  44.1013	   1.0858	   0.4613	   0.0245	   0.6001	   0.2252	  42.7903	9.285e+02	1.271e-01	   5.796	 13657.425
36000	36000	 6.4867	 1.9858	   1.5737	        1.4676	          0.1060	   1.5737	        1.4676	1000000.0000	8.062e-02	1.227e+02	1.521e+03	1.644e+03	 1.0000	 0.0000	 0.0000	 0.0000	 1.00000	  80.0452	   1.0855	   0.4608	   0.0245	   0.6003	   0.2251	  78.7345	1.050e+03	1.271e-01	   4.982	 13967.696
36800	36800	 6.1811	 1.9856	   1.5734	        1.4676	          0.1057	   1.5734	        1.4676	1000000.0000	2.998e-02	4.561e+01	1.521e+03	1.567e+03	 1.0000	 0.0000	 0.0000	 0.0000	 1.00000	  30.5867	   1.0836	   0.4590	   0.0245	   0.6002	   0.2251	  29.2779	1.000e+03	1.271e-01	   6.139	 14299.634
37600	37600	 5.9625	 1.9849	   1.5731	        1.4676	          0.1054	   1.5731	        1.4676	1000000.0000	6.257e-03	9.519e+00	1.521e+03	1.512e+03	 1.0000	 0.0000	 0.0000	 0.0000	 1.00000	   7.4194	   1.0838	   0.4595	   0.0245	   0.5999	   0.2251	   6.1104	9.650e+02	1.271e-01	   6.953	 14611.022
38400	38400	 6.3703	 1.9853	   1.5735	        1.4676	          0.1059	   1.5735	        1.4676	1000000.0000	6.133e-02	9.331e+01	1.521e+03	1.615e+03	 1.0000	 0.0000	 0.0000	 0.0000	 1.00000	  61.2066	   1.0844	   0.4599	   0.0245	   0.6001	   0.2251	  59.8970	1.031e+03	1.271e-01	   6.589	 14912.412
39200	39200	 5.6845	 1.9844	   1.5727	        1.4676	          0.1051	   1.5727	        1.4676	1000000.0000	5.234e-02	7.962e+01	1.521e+03	1.442e+03	 1.0000	 0.0000	 0.0000	 0.0000	 1.00000	  52.4249	   1.0863	   0.4622	   0.0245	   0.5997	   0.2251	  51.1135	9.202e+02	1.271e-01	   4.951	 15227.178
40000	40000	 6.4965	 1.9851	   1.5736	        1.4676	          0.1060	   1.5736	        1.4676	1000000.0000	8.226e-02	1.251e+02	1.521e+03	1.646e+03	 1.0000	 0.0000	 0.0000	 0.0000	 1.00000	  81.6408	   1.0855	   0.4611	   0.0245	   0.6000	   0.2251	  80.3302	1.052e+03	1.271e-01	   5.138	 15533.019
40800	40800	 5.5847	 1.9840	   1.5726	        1.4676	          0.1049	   1.5726	        1.4676	1000000.0000	6.888e-02	1.048e+02	1.521e+03	1.416e+03	 1.0000	 0.0000	 0.0000	 0.0000	 1.00000	  68.5825	   1.0877	   0.4638	   0.0245	   0.5995	   0.2251	  67.2696	9.040e+02	1.271e-01	   5.143	 15847.748
41600	41600	 5.4522	 1.9852	   1.5726	        1.4676	          0.1050	   1.5726	        1.4676	1000000.0000	9.083e-02	1.382e+02	1.521e+03	1.383e+03	 1.0000	 0.0000	 0.0000	 0.0000	 1.00000	  90.0209	   1.0905	   0.4661	   0.0245	   0.6000	   0.2251	  88.7053	8.826e+02	1.271e-01	   6.930	 16150.176
42400	42400	 6.3473	 1.9851	   1.5735	        1.4676	          0.1058	   1.5735	        1.4676	1000000.0000	5.752e-02	8.750e+01	1.521e+03	1.609e+03	 1.0000	 0.0000	 0.0000	 0.0000	 1.00000	  57.4775	   1.0842	   0.4598	   0.0245	   0.6000	   0.2251	  56.1682	1.027e+03	1.271e-01	   8.876	 16477.559
43200	43200	 6.0028	 1.9837	   1.5729	        1.4676	          0.1053	   1.5729	        1.4676	1000000.0000	4.242e-04	6.453e-01	1.521e+03	1.522e+03	 1.0000	 0.0000	 0.0000	 0.0000	 1.00000	   1.7228	   1.0834	   0.4596	   0.0245	   0.5994	   0.2251	   0.4143	9.536e+02	1.271e-01	   5.415	 16783.489
44000	44000	 6.1791	 1.9838	   1.5731	        1.4676	          0.1055	   1.5731	        1.4676	1000000.0000	2.964e-02	4.508e+01	1.521e+03	1.566e+03	 1.0000	 0.0000	 0.0000	 0.0000	 1.00000	  30.2498	   1.0832	   0.4594	   0.0245	   0.5994	   0.2251	  28.9415	1.000e+03	1.271e-01	   4.627	 17085.567
44800	44800	 5.6823	 1.9837	   1.5726	        1.4676	          0.1050	   1.5726	        1.4676	1000000.0000	5.270e-02	8.017e+01	1.521e+03	1.441e+03	 1.0000	 0.0000	 0.0000	 0.0000	 1.00000	  52.7770	   1.0861	   0.4623	   0.0245	   0.5994	   0.2251	  51.4658	9.198e+02	1.271e-01	   4.757	 17409.610
45600	45600	 5.4704	 1.9847	   1.5726	        1.4676	          0.1049	   1.5726	        1.4676	1000000.0000	8.782e-02	1.336e+02	1.521e+03	1.388e+03	 1.0000	 0.0000	 0.0000	 0.0000	 1.00000	  87.0760	   1.0900	   0.4658	   0.0245	   0.5998	   0.2251	  85.7609	8.855e+02	1.271e-01	  11.248	 17728.202
46400	46400	 6.4490	 1.9846	   1.5735	        1.4676	          0.1059	   1.5735	        1.4676	1000000.0000	7.438e-02	1.132e+02	1.521e+03	1.634e+03	 1.0000	 0.0000	 0.0000	 0.0000	 1.00000	  73.9474	   1.0849	   0.4607	   0.0245	   0.5997	   0.2251	  72.6374	1.044e+03	1.271e-01	   8.364	 18039.882
47200	47200	 5.7520	 1.9838	   1.5727	        1.4676	          0.1051	   1.5727	        1.4676	1000000.0000	4.115e-02	6.261e+01	1.521e+03	1.459e+03	 1.0000	 0.0000	 0.0000	 0.0000	 1.00000	  41.5005	   1.0853	   0.4614	   0.0245	   0.5994	   0.2251	  40.1901	9.311e+02	1.271e-01	   4.979	 18355.758
48000	48000	 6.5099	 1.9854	   1.5737	        1.4676	          0.1060	   1.5737	        1.4676	1000000.0000	8.447e-02	1.285e+02	1.521e+03	1.650e+03	 1.0000	 0.0000	 0.0000	 0.0000	 1.00000	  83.8059	   1.0857	   0.4611	   0.0245	   0.6001	   0.2251	  82.4951	1.054e+03	1.271e-01	   4.558	 18659.882
48800	48800	 5.7390	 1.9847	   1.5728	        1.4676	          0.1052	   1.5728	        1.4676	1000000.0000	4.330e-02	6.587e+01	1.521e+03	1.455e+03	 1.0000	 0.0000	 0.0000	 0.0000	 1.00000	  43.5930	   1.0856	   0.4614	   0.0245	   0.5998	   0.2251	  42.2823	9.290e+02	1.271e-01	   5.849	 18968.551
49600	49600	 6.0053	 1.9840	   1.5730	        1.4676	          0.1053	   1.5730	        1.4676	1000000.0000	8.361e-04	1.272e+00	1.521e+03	1.523e+03	 1.0000	 0.0000	 0.0000	 0.0000	 1.00000	   2.1250	   1.0834	   0.4595	   0.0245	   0.5995	   0.2251	   0.8165	9.681e+02	1.271e-01	   4.923	 19287.550
50400	50400	 5.4688	 1.9832	   1.5724	        1.4676	          0.1047	   1.5724	        1.4676	1000000.0000	8.808e-02	1.340e+02	1.521e+03	1.387e+03	 1.0000	 0.0000	 0.0000	 0.0000	 1.00000	  87.3316	   1.0897	   0.4661	   0.0245	   0.5991	   0.2251	  86.0168	8.853e+02	1.271e-01	   5.379	 19592.377
51200	51200	 6.4975	 1.9835	   1.5734	        1.4676	          0.1058	   1.5734	        1.4676	1000000.0000	8.241e-02	1.254e+02	1.521e+03	1.647e+03	 1.0000	 0.0000	 0.0000	 0.0000	 1.00000	  81.7934	   1.0852	   0.4615	   0.0245	   0.5993	   0.2251	  80.4832	1.052e+03	1.271e-01	   6.401	 19923.811
