[GPU 7][JOB 8] 'python cli.py minimax --n 1024 --lengthscale 0.5 --sigma-f2-true 4.0 --sigma-eps2-true 1.0 --n-epochs 2000000 --print-every 800 --device auto --kernel-mode finite --a 1.e-4 --b 40e-3 --w-init-scale 0.001 --num-features 128 --mu-increase-factor 1.0 --mu-increase-epochs 0 --mu 1.e6 --lr-decay 1.0 --lr-decay-every-epochs 0 --seed 3 --batch-size 1024 --sigma-f2-init 6.0  --sigma-eps2-init 2.0 --penalty-normalization relative     --real-psi-if-full-batch '
[CLI] Using torch default dtype torch.float64.

=== MINIMAX + ORF (TMLR) ===  ψ = (g(θ) + log|A| + μ‖A-F‖/‖A‖)/n
iter	epoch	σ_f²	σ_ε²	real_nlml	real_nlml_true	real_nlml_abs_err	orf_nlml	orf_nlml_true	μ	|A-F|/|A|	|A-F|		|A|		|F|		cosAF	|B|	cosBΔ	pen/pen*	lr_scale	ψ_real	g(θ)/n		‖Φw-y‖²/(nσ_ε²)	‖w‖²/n	((n-d)logσ_ε²)/n	(log|A|)/n	μ‖A-F‖/‖A‖/n	||grad_psi_real||	||grad||	duration_s	wall_time_s
 800	800	 6.1265	 1.9960	   1.5985	        1.5165	          0.0819	   1.5985	        1.5165	1000000.0000	2.095e-02	3.221e+01	1.537e+03	1.569e+03	 1.0000	 0.0000	 0.0000	 0.0000	 1.00000	  21.8192	   1.1335	   0.5094	   0.0194	   0.6048	   0.2252	  20.4605	9.918e+02	1.137e-01	   5.882	   318.434
1600	1600	 5.6544	 1.9927	   1.5974	        1.5165	          0.0809	   1.5974	        1.5165	1000000.0000	5.732e-02	8.810e+01	1.537e+03	1.449e+03	 1.0000	 0.0000	 0.0000	 0.0000	 1.00000	  57.3333	   1.1357	   0.5131	   0.0194	   0.6033	   0.2252	  55.9723	9.154e+02	1.137e-01	   5.281	   631.234
2400	2400	 5.7987	 1.9917	   1.5975	        1.5165	          0.0810	   1.5975	        1.5165	1000000.0000	3.339e-02	5.133e+01	1.537e+03	1.486e+03	 1.0000	 0.0000	 0.0000	 0.0000	 1.00000	  33.9705	   1.1341	   0.5119	   0.0194	   0.6028	   0.2252	  32.6112	9.388e+02	1.137e-01	   5.029	   950.980
3200	3200	 5.6412	 1.9911	   1.5972	        1.5165	          0.0807	   1.5972	        1.5165	1000000.0000	5.951e-02	9.147e+01	1.537e+03	1.446e+03	 1.0000	 0.0000	 0.0000	 0.0000	 1.00000	  59.4724	   1.1356	   0.5136	   0.0194	   0.6026	   0.2252	  58.1117	9.133e+02	1.137e-01	   7.001	  1244.673
4000	4000	 6.4625	 1.9917	   1.5985	        1.5165	          0.0819	   1.5985	        1.5165	1000000.0000	7.665e-02	1.178e+02	1.537e+03	1.655e+03	 1.0000	 0.0000	 0.0000	 0.0000	 1.00000	  76.2140	   1.1340	   0.5117	   0.0194	   0.6029	   0.2252	  74.8548	1.046e+03	1.137e-01	   5.426	  1558.610
4800	4800	 6.3057	 1.9913	   1.5982	        1.5165	          0.0817	   1.5982	        1.5165	1000000.0000	5.066e-02	7.787e+01	1.537e+03	1.615e+03	 1.0000	 0.0000	 0.0000	 0.0000	 1.00000	  50.8264	   1.1330	   0.5109	   0.0194	   0.6027	   0.2252	  49.4683	1.021e+03	1.137e-01	   4.894	  1877.496
5600	5600	 5.8182	 1.9904	   1.5974	        1.5165	          0.0808	   1.5974	        1.5165	1000000.0000	3.017e-02	4.638e+01	1.537e+03	1.491e+03	 1.0000	 0.0000	 0.0000	 0.0000	 1.00000	  30.8212	   1.1337	   0.5120	   0.0194	   0.6023	   0.2252	  29.4623	9.419e+02	1.137e-01	   6.219	  2186.411
6400	6400	 6.4909	 1.9912	   1.5985	        1.5165	          0.0819	   1.5985	        1.5165	1000000.0000	8.135e-02	1.251e+02	1.537e+03	1.662e+03	 1.0000	 0.0000	 0.0000	 0.0000	 1.00000	  80.8043	   1.1341	   0.5121	   0.0194	   0.6027	   0.2252	  79.4450	1.051e+03	1.136e-01	   6.625	  2481.735
7200	7200	 5.5946	 1.9910	   1.5971	        1.5165	          0.0806	   1.5971	        1.5165	1000000.0000	6.723e-02	1.033e+02	1.537e+03	1.434e+03	 1.0000	 0.0000	 0.0000	 0.0000	 1.00000	  67.0150	   1.1362	   0.5142	   0.0194	   0.6025	   0.2252	  65.6537	9.058e+02	1.137e-01	   4.513	  2790.713
8000	8000	 5.5457	 1.9911	   1.5971	        1.5165	          0.0806	   1.5971	        1.5165	1000000.0000	7.533e-02	1.158e+02	1.537e+03	1.421e+03	 1.0000	 0.0000	 0.0000	 0.0000	 1.00000	  74.9242	   1.1369	   0.5149	   0.0194	   0.6026	   0.2252	  73.5621	8.979e+02	1.137e-01	   5.222	  3103.132
8800	8800	 5.7958	 1.9915	   1.5975	        1.5165	          0.0809	   1.5975	        1.5165	1000000.0000	3.388e-02	5.208e+01	1.537e+03	1.485e+03	 1.0000	 0.0000	 0.0000	 0.0000	 1.00000	  34.4448	   1.1340	   0.5119	   0.0194	   0.6028	   0.2252	  33.0856	9.383e+02	1.137e-01	   8.986	  3395.616
9600	9600	 6.1672	 1.9910	   1.5980	        1.5165	          0.0814	   1.5980	        1.5165	1000000.0000	2.770e-02	4.258e+01	1.537e+03	1.580e+03	 1.0000	 0.0000	 0.0000	 0.0000	 1.00000	  28.4069	   1.1326	   0.5107	   0.0194	   0.6026	   0.2252	  27.0492	9.984e+02	1.137e-01	   5.879	  3708.900
10400	10400	 6.2950	 1.9908	   1.5981	        1.5165	          0.0816	   1.5981	        1.5165	1000000.0000	4.888e-02	7.514e+01	1.537e+03	1.612e+03	 1.0000	 0.0000	 0.0000	 0.0000	 1.00000	  49.0939	   1.1329	   0.5110	   0.0194	   0.6025	   0.2251	  47.7359	1.019e+03	1.136e-01	   5.723	  4014.941
11200	11200	 6.1693	 1.9902	   1.5979	        1.5165	          0.0813	   1.5979	        1.5165	1000000.0000	2.804e-02	4.310e+01	1.537e+03	1.580e+03	 1.0000	 0.0000	 0.0000	 0.0000	 1.00000	  28.7369	   1.1325	   0.5109	   0.0194	   0.6022	   0.2251	  27.3793	9.987e+02	1.136e-01	   9.583	  4334.932
12000	12000	 5.6305	 1.9901	   1.5971	        1.5165	          0.0806	   1.5971	        1.5165	1000000.0000	6.128e-02	9.420e+01	1.537e+03	1.443e+03	 1.0000	 0.0000	 0.0000	 0.0000	 1.00000	  61.2064	   1.1355	   0.5140	   0.0194	   0.6022	   0.2251	  59.8457	9.116e+02	1.137e-01	   9.455	  4649.723
12800	12800	 6.2931	 1.9916	   1.5982	        1.5165	          0.0817	   1.5982	        1.5165	1000000.0000	4.856e-02	7.465e+01	1.537e+03	1.612e+03	 1.0000	 0.0000	 0.0000	 0.0000	 1.00000	  48.7826	   1.1330	   0.5108	   0.0194	   0.6028	   0.2251	  47.4244	1.019e+03	1.137e-01	   5.708	  4967.940
13600	13600	 5.8637	 1.9908	   1.5975	        1.5165	          0.0810	   1.5975	        1.5165	1000000.0000	2.262e-02	3.477e+01	1.537e+03	1.502e+03	 1.0000	 0.0000	 0.0000	 0.0000	 1.00000	  23.4481	   1.1334	   0.5116	   0.0194	   0.6025	   0.2251	  22.0895	9.493e+02	1.137e-01	   6.404	  5262.044
14400	14400	 6.5729	 1.9908	   1.5985	        1.5165	          0.0820	   1.5985	        1.5165	1000000.0000	9.495e-02	1.460e+02	1.537e+03	1.683e+03	 1.0000	 0.0000	 0.0000	 0.0000	 1.00000	  94.0852	   1.1348	   0.5130	   0.0194	   0.6025	   0.2251	  92.7252	1.064e+03	1.136e-01	   6.867	  5568.792
15200	15200	 5.5811	 1.9904	   1.5971	        1.5165	          0.0805	   1.5971	        1.5165	1000000.0000	6.946e-02	1.068e+02	1.537e+03	1.430e+03	 1.0000	 0.0000	 0.0000	 0.0000	 1.00000	  69.1940	   1.1362	   0.5145	   0.0194	   0.6023	   0.2251	  67.8326	9.036e+02	1.137e-01	   5.374	  5858.538
16000	16000	 5.5438	 1.9902	   1.5970	        1.5165	          0.0804	   1.5970	        1.5165	1000000.0000	7.566e-02	1.163e+02	1.537e+03	1.421e+03	 1.0000	 0.0000	 0.0000	 0.0000	 1.00000	  75.2437	   1.1367	   0.5151	   0.0194	   0.6022	   0.2251	  73.8819	8.976e+02	1.137e-01	   6.084	  6154.434
16800	16800	 6.4235	 1.9905	   1.5983	        1.5165	          0.0817	   1.5983	        1.5165	1000000.0000	7.018e-02	1.079e+02	1.537e+03	1.645e+03	 1.0000	 0.0000	 0.0000	 0.0000	 1.00000	  69.8927	   1.1335	   0.5118	   0.0194	   0.6023	   0.2251	  68.5341	1.040e+03	1.136e-01	   5.817	  6470.457
17600	17600	 6.2419	 1.9902	   1.5980	        1.5165	          0.0814	   1.5980	        1.5165	1000000.0000	4.007e-02	6.160e+01	1.537e+03	1.599e+03	 1.0000	 0.0000	 0.0000	 0.0000	 1.00000	  40.4902	   1.1326	   0.5110	   0.0194	   0.6022	   0.2251	  39.1324	1.010e+03	1.136e-01	   6.622	  6780.302
18400	18400	 6.5609	 1.9899	   1.5984	        1.5165	          0.0819	   1.5984	        1.5165	1000000.0000	9.296e-02	1.429e+02	1.537e+03	1.680e+03	 1.0000	 0.0000	 0.0000	 0.0000	 1.00000	  92.1442	   1.1346	   0.5131	   0.0194	   0.6021	   0.2251	  90.7845	1.062e+03	1.136e-01	   5.050	  7078.453
19200	19200	 5.7848	 1.9893	   1.5972	        1.5165	          0.0807	   1.5972	        1.5165	1000000.0000	3.570e-02	5.487e+01	1.537e+03	1.482e+03	 1.0000	 0.0000	 0.0000	 0.0000	 1.00000	  36.2198	   1.1337	   0.5125	   0.0194	   0.6018	   0.2251	  34.8610	9.365e+02	1.136e-01	   5.932	  7403.815
20000	20000	 5.4969	 1.9887	   1.5968	        1.5165	          0.0802	   1.5968	        1.5165	1000000.0000	8.342e-02	1.282e+02	1.537e+03	1.409e+03	 1.0000	 0.0000	 0.0000	 0.0000	 1.00000	  82.8296	   1.1371	   0.5162	   0.0194	   0.6015	   0.2251	  81.4673	8.900e+02	1.136e-01	   6.078	  7695.817
20800	20800	 6.1692	 1.9893	   1.5978	        1.5165	          0.0812	   1.5978	        1.5165	1000000.0000	2.802e-02	4.307e+01	1.537e+03	1.580e+03	 1.0000	 0.0000	 0.0000	 0.0000	 1.00000	  28.7191	   1.1323	   0.5111	   0.0194	   0.6018	   0.2251	  27.3617	9.987e+02	1.136e-01	   4.472	  8029.952
21600	21600	 6.2934	 1.9890	   1.5979	        1.5165	          0.0814	   1.5979	        1.5165	1000000.0000	4.860e-02	7.471e+01	1.537e+03	1.612e+03	 1.0000	 0.0000	 0.0000	 0.0000	 1.00000	  48.8193	   1.1326	   0.5115	   0.0194	   0.6017	   0.2251	  47.4617	1.019e+03	1.136e-01	   5.728	  8336.990
22400	22400	 6.2276	 1.9890	   1.5978	        1.5165	          0.0813	   1.5978	        1.5165	1000000.0000	3.770e-02	5.795e+01	1.537e+03	1.595e+03	 1.0000	 0.0000	 0.0000	 0.0000	 1.00000	  38.1755	   1.1324	   0.5113	   0.0194	   0.6017	   0.2251	  36.8181	1.008e+03	1.136e-01	   4.779	  8633.424
23200	23200	 5.6840	 1.9896	   1.5971	        1.5165	          0.0806	   1.5971	        1.5165	1000000.0000	5.241e-02	8.056e+01	1.537e+03	1.457e+03	 1.0000	 0.0000	 0.0000	 0.0000	 1.00000	  52.5405	   1.1347	   0.5134	   0.0194	   0.6019	   0.2251	  51.1807	9.202e+02	1.136e-01	   5.805	  8949.493
24000	24000	 5.7517	 1.9892	   1.5972	        1.5165	          0.0806	   1.5972	        1.5165	1000000.0000	4.120e-02	6.333e+01	1.537e+03	1.474e+03	 1.0000	 0.0000	 0.0000	 0.0000	 1.00000	  41.5908	   1.1340	   0.5128	   0.0194	   0.6018	   0.2251	  40.2317	9.312e+02	1.136e-01	   6.058	  9263.657
24800	24800	 6.1114	 1.9898	   1.5978	        1.5165	          0.0812	   1.5978	        1.5165	1000000.0000	1.843e-02	2.834e+01	1.537e+03	1.566e+03	 1.0000	 0.0000	 0.0000	 0.0000	 1.00000	  19.3590	   1.1324	   0.5110	   0.0194	   0.6020	   0.2251	  18.0015	9.893e+02	1.136e-01	   8.791	  9593.747
25600	25600	 5.9626	 1.9894	   1.5975	        1.5165	          0.0810	   1.5975	        1.5165	1000000.0000	6.232e-03	9.580e+00	1.537e+03	1.528e+03	 1.0000	 0.0000	 0.0000	 0.0000	 1.00000	   7.4439	   1.1326	   0.5114	   0.0194	   0.6019	   0.2251	   6.0862	9.652e+02	1.136e-01	   6.486	  9893.055
26400	26400	 5.6904	 1.9894	   1.5971	        1.5165	          0.0806	   1.5971	        1.5165	1000000.0000	5.135e-02	7.894e+01	1.537e+03	1.458e+03	 1.0000	 0.0000	 0.0000	 0.0000	 1.00000	  51.5086	   1.1346	   0.5134	   0.0194	   0.6019	   0.2251	  50.1489	9.213e+02	1.136e-01	   5.289	 10210.932
27200	27200	 5.7860	 1.9893	   1.5972	        1.5165	          0.0807	   1.5972	        1.5165	1000000.0000	3.550e-02	5.457e+01	1.537e+03	1.483e+03	 1.0000	 0.0000	 0.0000	 0.0000	 1.00000	  36.0265	   1.1337	   0.5125	   0.0194	   0.6018	   0.2251	  34.6677	9.367e+02	1.136e-01	   5.860	 10510.258
28000	28000	 5.5461	 1.9887	   1.5968	        1.5165	          0.0803	   1.5968	        1.5165	1000000.0000	7.527e-02	1.157e+02	1.537e+03	1.421e+03	 1.0000	 0.0000	 0.0000	 0.0000	 1.00000	  74.8705	   1.1364	   0.5154	   0.0194	   0.6016	   0.2251	  73.5090	8.979e+02	1.136e-01	   5.376	 10841.026
28800	28800	 6.0569	 1.9886	   1.5975	        1.5165	          0.0810	   1.5975	        1.5165	1000000.0000	9.399e-03	1.445e+01	1.537e+03	1.552e+03	 1.0000	 0.0000	 0.0000	 0.0000	 1.00000	  10.5365	   1.1322	   0.5113	   0.0194	   0.6015	   0.2251	   9.1792	9.805e+02	1.136e-01	   5.585	 11147.793
29600	29600	 6.3589	 1.9894	   1.5981	        1.5165	          0.0815	   1.5981	        1.5165	1000000.0000	5.947e-02	9.141e+01	1.537e+03	1.629e+03	 1.0000	 0.0000	 0.0000	 0.0000	 1.00000	  59.4335	   1.1330	   0.5117	   0.0194	   0.6018	   0.2251	  58.0755	1.029e+03	1.136e-01	   4.694	 11476.217
30400	30400	 5.6891	 1.9891	   1.5971	        1.5165	          0.0805	   1.5971	        1.5165	1000000.0000	5.156e-02	7.926e+01	1.537e+03	1.458e+03	 1.0000	 0.0000	 0.0000	 0.0000	 1.00000	  51.7141	   1.1346	   0.5135	   0.0194	   0.6017	   0.2251	  50.3544	9.211e+02	1.136e-01	   5.871	 11786.469
31200	31200	 5.5930	 1.9884	   1.5969	        1.5165	          0.0803	   1.5969	        1.5165	1000000.0000	6.750e-02	1.038e+02	1.537e+03	1.433e+03	 1.0000	 0.0000	 0.0000	 0.0000	 1.00000	  67.2771	   1.1356	   0.5148	   0.0194	   0.6014	   0.2251	  65.9164	9.055e+02	1.136e-01	   4.754	 12104.772
32000	32000	 6.5597	 1.9889	   1.5983	        1.5165	          0.0817	   1.5983	        1.5165	1000000.0000	9.275e-02	1.426e+02	1.537e+03	1.680e+03	 1.0000	 0.0000	 0.0000	 0.0000	 1.00000	  91.9376	   1.1344	   0.5134	   0.0194	   0.6016	   0.2251	  90.5781	1.062e+03	1.136e-01	   6.254	 12412.098
32800	32800	 6.0553	 1.9891	   1.5976	        1.5165	          0.0810	   1.5976	        1.5165	1000000.0000	9.145e-03	1.406e+01	1.537e+03	1.551e+03	 1.0000	 0.0000	 0.0000	 0.0000	 1.00000	  10.2884	   1.1323	   0.5112	   0.0194	   0.6017	   0.2251	   8.9310	9.803e+02	1.136e-01	   9.893	 12748.515
33600	33600	 6.4854	 1.9895	   1.5983	        1.5165	          0.0817	   1.5983	        1.5165	1000000.0000	8.045e-02	1.237e+02	1.537e+03	1.661e+03	 1.0000	 0.0000	 0.0000	 0.0000	 1.00000	  79.9203	   1.1339	   0.5126	   0.0194	   0.6019	   0.2251	  78.5614	1.050e+03	1.136e-01	   6.487	 13049.139
34400	34400	 5.9178	 1.9885	   1.5973	        1.5165	          0.0808	   1.5973	        1.5165	1000000.0000	1.365e-02	2.098e+01	1.537e+03	1.516e+03	 1.0000	 0.0000	 0.0000	 0.0000	 1.00000	  14.6865	   1.1327	   0.5118	   0.0194	   0.6014	   0.2250	  13.3287	9.580e+02	1.136e-01	   6.732	 13347.278
35200	35200	 6.5658	 1.9890	   1.5983	        1.5165	          0.0818	   1.5983	        1.5165	1000000.0000	9.377e-02	1.441e+02	1.537e+03	1.681e+03	 1.0000	 0.0000	 0.0000	 0.0000	 1.00000	  92.9327	   1.1345	   0.5134	   0.0194	   0.6017	   0.2250	  91.5731	1.063e+03	1.136e-01	   4.846	 13666.070
36000	36000	 6.2317	 1.9878	   1.5977	        1.5165	          0.0812	   1.5977	        1.5165	1000000.0000	3.838e-02	5.899e+01	1.537e+03	1.596e+03	 1.0000	 0.0000	 0.0000	 0.0000	 1.00000	  38.8352	   1.1322	   0.5116	   0.0194	   0.6011	   0.2250	  37.4780	1.009e+03	1.136e-01	   5.726	 13974.658
36800	36800	 5.7870	 1.9880	   1.5971	        1.5165	          0.0805	   1.5971	        1.5165	1000000.0000	3.534e-02	5.432e+01	1.537e+03	1.483e+03	 1.0000	 0.0000	 0.0000	 0.0000	 1.00000	  35.8671	   1.1334	   0.5128	   0.0194	   0.6012	   0.2250	  34.5086	9.369e+02	1.136e-01	   6.041	 14262.988
37600	37600	 5.9059	 1.9885	   1.5973	        1.5165	          0.0808	   1.5973	        1.5165	1000000.0000	1.563e-02	2.403e+01	1.537e+03	1.513e+03	 1.0000	 0.0000	 0.0000	 0.0000	 1.00000	  16.6251	   1.1327	   0.5119	   0.0194	   0.6015	   0.2250	  15.2674	9.561e+02	1.136e-01	   5.575	 14587.223
38400	38400	 5.4902	 1.9880	   1.5967	        1.5165	          0.0801	   1.5967	        1.5165	1000000.0000	8.455e-02	1.300e+02	1.537e+03	1.407e+03	 1.0000	 0.0000	 0.0000	 0.0000	 1.00000	  83.9270	   1.1371	   0.5165	   0.0194	   0.6012	   0.2250	  82.5649	8.889e+02	1.136e-01	   5.199	 14887.149
39200	39200	 6.4882	 1.9879	   1.5981	        1.5165	          0.0815	   1.5981	        1.5165	1000000.0000	8.090e-02	1.244e+02	1.537e+03	1.662e+03	 1.0000	 0.0000	 0.0000	 0.0000	 1.00000	  80.3648	   1.1336	   0.5130	   0.0194	   0.6012	   0.2250	  79.0062	1.050e+03	1.136e-01	   7.321	 15190.140
40000	40000	 6.0646	 1.9876	   1.5974	        1.5165	          0.0809	   1.5974	        1.5165	1000000.0000	1.068e-02	1.642e+01	1.537e+03	1.554e+03	 1.0000	 0.0000	 0.0000	 0.0000	 1.00000	  11.7903	   1.1320	   0.5116	   0.0194	   0.6011	   0.2250	  10.4332	9.818e+02	1.136e-01	   7.235	 15519.915
40800	40800	 5.9332	 1.9879	   1.5973	        1.5165	          0.0807	   1.5973	        1.5165	1000000.0000	1.111e-02	1.708e+01	1.537e+03	1.520e+03	 1.0000	 0.0000	 0.0000	 0.0000	 1.00000	  12.2093	   1.1325	   0.5119	   0.0194	   0.6012	   0.2250	  10.8518	9.605e+02	1.136e-01	   5.847	 15821.443
41600	41600	 6.3955	 1.9876	   1.5979	        1.5165	          0.0814	   1.5979	        1.5165	1000000.0000	6.553e-02	1.007e+02	1.537e+03	1.638e+03	 1.0000	 0.0000	 0.0000	 0.0000	 1.00000	  65.3483	   1.1329	   0.5124	   0.0194	   0.6011	   0.2250	  63.9904	1.035e+03	1.136e-01	   5.809	 16161.866
42400	42400	 6.3018	 1.9881	   1.5978	        1.5165	          0.0813	   1.5978	        1.5165	1000000.0000	5.000e-02	7.686e+01	1.537e+03	1.614e+03	 1.0000	 0.0000	 0.0000	 0.0000	 1.00000	  50.1845	   1.1325	   0.5118	   0.0194	   0.6013	   0.2250	  48.8271	1.020e+03	1.136e-01	   6.454	 16462.804
43200	43200	 6.4379	 1.9882	   1.5980	        1.5165	          0.0815	   1.5980	        1.5165	1000000.0000	7.257e-02	1.116e+02	1.537e+03	1.649e+03	 1.0000	 0.0000	 0.0000	 0.0000	 1.00000	  72.2268	   1.1333	   0.5125	   0.0194	   0.6013	   0.2250	  70.8685	1.042e+03	1.136e-01	   5.562	 16773.590
44000	44000	 5.4987	 1.9891	   1.5968	        1.5165	          0.0803	   1.5968	        1.5165	1000000.0000	8.313e-02	1.278e+02	1.537e+03	1.409e+03	 1.0000	 0.0000	 0.0000	 0.0000	 1.00000	  82.5390	   1.1371	   0.5160	   0.0194	   0.6017	   0.2250	  81.1768	8.903e+02	1.136e-01	   5.088	 17102.766
44800	44800	 6.1725	 1.9876	   1.5976	        1.5165	          0.0810	   1.5976	        1.5165	1000000.0000	2.856e-02	4.391e+01	1.537e+03	1.581e+03	 1.0000	 0.0000	 0.0000	 0.0000	 1.00000	  29.2506	   1.1320	   0.5116	   0.0194	   0.6011	   0.2250	  27.8935	9.993e+02	1.136e-01	   5.876	 17410.518
45600	45600	 5.8047	 1.9865	   1.5969	        1.5165	          0.0804	   1.5969	        1.5165	1000000.0000	3.241e-02	4.982e+01	1.537e+03	1.487e+03	 1.0000	 0.0000	 0.0000	 0.0000	 1.00000	  33.0095	   1.1330	   0.5131	   0.0194	   0.6006	   0.2250	  31.6515	9.398e+02	1.136e-01	   4.519	 17705.289
46400	46400	 6.4215	 1.9872	   1.5979	        1.5165	          0.0814	   1.5979	        1.5165	1000000.0000	6.984e-02	1.074e+02	1.537e+03	1.645e+03	 1.0000	 0.0000	 0.0000	 0.0000	 1.00000	  69.5615	   1.1330	   0.5127	   0.0194	   0.6009	   0.2250	  68.2036	1.040e+03	1.136e-01	   4.931	 18015.831
47200	47200	 6.2489	 1.9871	   1.5976	        1.5165	          0.0811	   1.5976	        1.5165	1000000.0000	4.123e-02	6.338e+01	1.537e+03	1.601e+03	 1.0000	 0.0000	 0.0000	 0.0000	 1.00000	  41.6236	   1.1321	   0.5119	   0.0194	   0.6008	   0.2250	  40.2665	1.012e+03	1.136e-01	   4.866	 18343.194
48000	48000	 5.5132	 1.9862	   1.5965	        1.5165	          0.0799	   1.5965	        1.5165	1000000.0000	8.073e-02	1.241e+02	1.537e+03	1.413e+03	 1.0000	 0.0000	 0.0000	 0.0000	 1.00000	  80.2011	   1.1364	   0.5166	   0.0194	   0.6004	   0.2250	  78.8397	8.926e+02	1.136e-01	   6.328	 18663.673
48800	48800	 5.6370	 1.9868	   1.5967	        1.5165	          0.0802	   1.5967	        1.5165	1000000.0000	6.021e-02	9.255e+01	1.537e+03	1.445e+03	 1.0000	 0.0000	 0.0000	 0.0000	 1.00000	  60.1565	   1.1348	   0.5147	   0.0194	   0.6007	   0.2250	  58.7967	9.126e+02	1.136e-01	   5.198	 18989.686
49600	49600	 5.6302	 1.9869	   1.5967	        1.5165	          0.0802	   1.5967	        1.5165	1000000.0000	6.134e-02	9.430e+01	1.537e+03	1.443e+03	 1.0000	 0.0000	 0.0000	 0.0000	 1.00000	  61.2656	   1.1349	   0.5147	   0.0194	   0.6008	   0.2250	  59.9057	9.115e+02	1.136e-01	   8.432	 19325.189
50400	50400	 6.4922	 1.9869	   1.5980	        1.5165	          0.0814	   1.5980	        1.5165	1000000.0000	8.156e-02	1.254e+02	1.537e+03	1.663e+03	 1.0000	 0.0000	 0.0000	 0.0000	 1.00000	  81.0084	   1.1335	   0.5133	   0.0194	   0.6008	   0.2250	  79.6500	1.051e+03	1.136e-01	   6.379	 19666.664
51200	51200	 6.3299	 1.9873	   1.5978	        1.5165	          0.0812	   1.5978	        1.5165	1000000.0000	5.465e-02	8.400e+01	1.537e+03	1.621e+03	 1.0000	 0.0000	 0.0000	 0.0000	 1.00000	  54.7238	   1.1324	   0.5121	   0.0194	   0.6009	   0.2250	  53.3663	1.025e+03	1.136e-01	   5.962	 19979.746
